# wavelength (A)	sky flux (AB mag /arcsec^2)
3732.457  22.53022
3733.706  22.33738
3734.956  22.46453
3736.205  22.5341
3737.455  22.69235
3738.704  23.26052
3739.953  22.91558
3741.203  22.67847
3742.452  22.55127
3743.702  22.51139
3744.951  22.65966
3746.201  22.77299
3747.450  22.71943
3748.700  22.58002
3749.949  22.56125
3751.199  22.86692
3752.448  23.15518
3753.697  23.00615
3754.947  22.65997
3756.196  22.54102
3757.446  22.74641
3758.695  22.67533
3759.945  22.85576
3761.194  23.33793
3762.444  23.07446
3763.693  22.75829
3764.942  22.92773
3766.192  22.92559
3767.441  22.62934
3768.691  22.99057
3769.940  22.93236
3771.190  22.78639
3772.439  22.72015
3773.689  22.66866
3774.938  22.72745
3776.187  22.66431
3777.437  23.0717
3778.686  22.8432
3779.936  22.97217
3781.185  22.69295
3782.435  22.64517
3783.684  22.84564
3784.934  22.83859
3786.183  22.79937
3787.433  22.74176
3788.682  22.6096
3789.931  22.6638
3791.181  22.79052
3792.430  22.74727
3793.680  22.80086
3794.929  22.78138
3796.179  22.79465
3797.428  22.97679
3798.678  22.98797
3799.927  22.98248
3801.176  23.28111
3802.426  23.22338
3803.675  23.04201
3804.925  22.94238
3806.174  22.94021
3807.424  22.87544
3808.673  22.72125
3809.923  22.81064
3811.172  22.91771
3812.422  22.78095
3813.671  22.70703
3814.920  22.59571
3816.170  22.59474
3817.419  22.80868
3818.669  22.72927
3819.918  22.7666
3821.168  22.95614
3822.417  23.05845
3823.667  23.01171
3824.916  22.92473
3826.165  22.70319
3827.415  22.38262
3828.664  22.26911
3829.914  22.31254
3831.163  22.4194
3832.413  22.33409
3833.662  22.33782
3834.912  22.41553
3836.161  22.43179
3837.410  22.5266
3838.660  22.61035
3839.909  22.65006
3841.159  22.62979
3842.408  22.59016
3843.658  22.63495
3844.907  22.85794
3846.157  22.85983
3847.406  22.75364
3848.656  22.8072
3849.905  23.07883
3851.154  23.058
3852.404  23.01975
3853.653  22.87926
3854.903  22.92287
3856.152  22.99261
3857.402  22.96157
3858.651  23.05872
3859.901  23.21625
3861.150  23.26265
3862.399  23.28
3863.649  23.16639
3864.898  23.14743
3866.148  23.36921
3867.397  23.38085
3868.647  23.1709
3869.896  23.13572
3871.146  23.17666
3872.395  23.11588
3873.644  23.02055
3874.894  23.00789
3876.143  23.24855
3877.393  23.43185
3878.642  23.3775
3879.892  23.34964
3881.141  23.42541
3882.391  23.58333
3883.640  23.58224
3884.890  23.42391
3886.139  23.20515
3887.388  23.09496
3888.638  23.10336
3889.887  23.14714
3891.137  23.1652
3892.386  23.11255
3893.636  23.10887
3894.885  23.11037
3896.135  23.09809
3897.384  23.07899
3898.633  23.01217
3899.883  22.81907
3901.132  22.79088
3902.382  22.92436
3903.631  22.94016
3904.881  22.85487
3906.130  22.76463
3907.380  22.6378
3908.629  22.57681
3909.878  22.52337
3911.128  22.44586
3912.377  22.5187
3913.627  22.58855
3914.876  22.5443
3916.126  22.56749
3917.375  22.68752
3918.625  22.76145
3919.874  22.85907
3921.124  23.01212
3922.373  22.99875
3923.622  22.91307
3924.872  23.04758
3926.121  23.23187
3927.371  23.28395
3928.620  23.19399
3929.870  23.30258
3931.119  23.64222
3932.369  23.50726
3933.618  23.18683
3934.867  23.13031
3936.117  23.25571
3937.366  23.22367
3938.616  22.97251
3939.865  22.79893
3941.115  22.75368
3942.364  22.70378
3943.614  22.67542
3944.863  22.72135
3946.113  22.83935
3947.362  22.79191
3948.611  22.67246
3949.861  22.6834
3951.110  22.73365
3952.360  22.86917
3953.609  22.96882
3954.859  22.93292
3956.108  22.84302
3957.358  22.82803
3958.607  22.97181
3959.856  22.98648
3961.106  23.01807
3962.355  23.22552
3963.605  23.39862
3964.854  23.41364
3966.104  23.41866
3967.353  23.59009
3968.603  23.74987
3969.852  23.4949
3971.101  23.25421
3972.351  23.18862
3973.600  23.12001
3974.850  23.00823
3976.099  22.90611
3977.349  22.91002
3978.598  22.91895
3979.848  22.88841
3981.097  22.80541
3982.347  22.77606
3983.596  22.85844
3984.845  22.93077
3986.095  23.00238
3987.344  23.07016
3988.594  23.0547
3989.843  23.08647
3991.093  23.11018
3992.342  23.11149
3993.592  23.20408
3994.841  23.16808
3996.090  22.98145
3997.340  22.9083
3998.589  22.89668
3999.839  22.86777
4001.088  22.8659
4002.338  22.82799
4003.587  22.76142
4004.837  22.77015
4006.086  22.84654
4007.335  22.83929
4008.585  22.68762
4009.834  22.59745
4011.084  22.56701
4012.333  22.61186
4013.583  22.6313
4014.832  22.66717
4016.082  22.69493
4017.331  22.6633
4018.581  22.7519
4019.830  22.78857
4021.079  22.77895
4022.329  22.80368
4023.578  22.82946
4024.828  22.88231
4026.077  22.85686
4027.327  22.85062
4028.576  22.8557
4029.826  22.79066
4031.075  22.73883
4032.324  22.77484
4033.574  22.77118
4034.823  22.73039
4036.073  22.73008
4037.322  22.7106
4038.572  22.63642
4039.821  22.54468
4041.071  22.54101
4042.320  22.47655
4043.570  22.39621
4044.819  22.39827
4046.068  22.4234
4047.318  22.43918
4048.567  22.43256
4049.817  22.41746
4051.066  22.49607
4052.316  22.68908
4053.565  22.80662
4054.815  22.79345
4056.064  22.73477
4057.313  22.64948
4058.563  22.59028
4059.812  22.58478
4061.062  22.57338
4062.311  22.49118
4063.561  22.44934
4064.810  22.46983
4066.060  22.45773
4067.309  22.45859
4068.558  22.47176
4069.808  22.4619
4071.057  22.47865
4072.307  22.56359
4073.556  22.57842
4074.806  22.51186
4076.055  22.48522
4077.305  22.49073
4078.554  22.45763
4079.804  22.46383
4081.053  22.48558
4082.302  22.5221
4083.552  22.55853
4084.801  22.59661
4086.051  22.64894
4087.300  22.68666
4088.550  22.67275
4089.799  22.67547
4091.049  22.67513
4092.298  22.69324
4093.547  22.72678
4094.797  22.7338
4096.046  22.70684
4097.296  22.71376
4098.545  22.76638
4099.795  22.82092
4101.044  22.84719
4102.294  22.86592
4103.543  22.84147
4104.792  22.76772
4106.042  22.76107
4107.291  22.83486
4108.541  22.90444
4109.790  22.90929
4111.040  22.864
4112.289  22.84695
4113.539  22.85108
4114.788  22.79487
4116.038  22.79912
4117.287  22.77413
4118.536  22.7572
4119.786  22.78661
4121.035  22.74588
4122.285  22.74063
4123.534  22.77897
4124.784  22.68568
4126.033  22.62624
4127.283  22.65659
4128.532  22.65932
4129.781  22.63942
4131.031  22.64488
4132.280  22.63939
4133.530  22.66697
4134.779  22.66829
4136.029  22.6358
4137.278  22.61946
4138.528  22.61215
4139.777  22.64698
4141.026  22.67747
4142.276  22.71957
4143.525  22.77668
4144.775  22.76027
4146.024  22.75291
4147.274  22.75102
4148.523  22.72699
4149.773  22.74102
4151.022  22.75606
4152.272  22.69564
4153.521  22.62135
4154.770  22.57045
4156.020  22.5324
4157.269  22.53759
4158.519  22.51041
4159.768  22.45911
4161.018  22.46563
4162.267  22.47796
4163.517  22.40603
4164.766  22.33111
4166.015  22.33105
4167.265  22.33311
4168.514  22.35601
4169.764  22.39398
4171.013  22.42061
4172.263  22.44008
4173.512  22.45581
4174.762  22.46835
4176.011  22.48441
4177.261  22.49344
4178.510  22.50117
4179.759  22.49819
4181.009  22.55442
4182.258  22.65464
4183.508  22.69319
4184.757  22.69437
4186.007  22.70144
4187.256  22.69044
4188.506  22.65762
4189.755  22.70102
4191.004  22.69821
4192.254  22.66578
4193.503  22.75086
4194.753  22.76033
4196.002  22.69221
4197.252  22.73598
4198.501  22.80787
4199.751  22.76715
4201.000  22.73416
4202.249  22.73338
4203.499  22.71743
4204.748  22.66555
4205.998  22.67723
4207.247  22.65557
4208.497  22.58904
4209.746  22.63989
4210.996  22.67033
4212.245  22.65394
4213.495  22.66924
4214.744  22.71613
4215.993  22.76752
4217.243  22.75299
4218.492  22.75811
4219.742  22.7787
4220.991  22.78428
4222.241  22.79728
4223.490  22.79029
4224.740  22.79086
4225.989  22.85834
4227.238  22.889
4228.488  22.84903
4229.737  22.91459
4230.987  22.88002
4232.236  22.73614
4233.486  22.7352
4234.735  22.77126
4235.985  22.79161
4237.234  22.82805
4238.483  22.80178
4239.733  22.73415
4240.982  22.69141
4242.232  22.69683
4243.481  22.67128
4244.731  22.60333
4245.980  22.58774
4247.230  22.57446
4248.479  22.57585
4249.729  22.58491
4250.978  22.55119
4252.227  22.53731
4253.477  22.5515
4254.726  22.55261
4255.976  22.53822
4257.225  22.56652
4258.475  22.62752
4259.724  22.66125
4260.974  22.65471
4262.223  22.65373
4263.472  22.65841
4264.722  22.63536
4265.971  22.58553
4267.221  22.56853
4268.470  22.60799
4269.720  22.65665
4270.969  22.68207
4272.219  22.65836
4273.468  22.60153
4274.718  22.58384
4275.967  22.61665
4277.216  22.58921
4278.466  22.5384
4279.715  22.53538
4280.965  22.55549
4282.214  22.61193
4283.464  22.69597
4284.713  22.73601
4285.963  22.71127
4287.212  22.67946
4288.461  22.66881
4289.711  22.71283
4290.960  22.72619
4292.210  22.70391
4293.459  22.69363
4294.709  22.62414
4295.958  22.55343
4297.208  22.59177
4298.457  22.65062
4299.706  22.68441
4300.956  22.7983
4302.205  22.87531
4303.455  22.79376
4304.704  22.73139
4305.954  22.70931
4307.203  22.6112
4308.453  22.56817
4309.702  22.5926
4310.952  22.58369
4312.201  22.55963
4313.450  22.53569
4314.700  22.47189
4315.949  22.42956
4317.199  22.44548
4318.448  22.48722
4319.698  22.50756
4320.947  22.49445
4322.197  22.52666
4323.446  22.62183
4324.695  22.67814
4325.945  22.6902
4327.194  22.68034
4328.444  22.64732
4329.693  22.64646
4330.943  22.67314
4332.192  22.61843
4333.442  22.60953
4334.691  22.61632
4335.940  22.55808
4337.190  22.55267
4338.439  22.60505
4339.689  22.62468
4340.938  22.68063
4342.188  22.72577
4343.437  22.61437
4344.687  22.4663
4345.936  22.48333
4347.186  22.58726
4348.435  22.60189
4349.684  22.55286
4350.934  22.52402
4352.183  22.52785
4353.433  22.46091
4354.682  22.26115
4355.932  22.06294
4357.181  21.96622
4358.431  21.98797
4359.680  22.08984
4360.929  22.18707
4362.179  22.30194
4363.428  22.45432
4364.678  22.52744
4365.927  22.47872
4367.177  22.46201
4368.426  22.48919
4369.676  22.51713
4370.925  22.56638
4372.174  22.55804
4373.424  22.52444
4374.673  22.50065
4375.923  22.45127
4377.172  22.39668
4378.422  22.43207
4379.671  22.53515
4380.921  22.54958
4382.170  22.54165
4383.420  22.61668
4384.669  22.62336
4385.918  22.58965
4387.168  22.61631
4388.417  22.59678
4389.667  22.60664
4390.916  22.64824
4392.166  22.60413
4393.415  22.57235
4394.665  22.58468
4395.914  22.59731
4397.163  22.56664
4398.413  22.50723
4399.662  22.49688
4400.912  22.4874
4402.161  22.4442
4403.411  22.41855
4404.660  22.38279
4405.910  22.30785
4407.159  22.25585
4408.409  22.26435
4409.658  22.27274
4410.907  22.27954
4412.157  22.29637
4413.406  22.28511
4414.656  22.27381
4415.905  22.28614
4417.155  22.3186
4418.404  22.33898
4419.654  22.30753
4420.903  22.2944
4422.152  22.31218
4423.402  22.26844
4424.651  22.22754
4425.901  22.26438
4427.150  22.32846
4428.400  22.40156
4429.649  22.43925
4430.899  22.42194
4432.148  22.38953
4433.397  22.39923
4434.647  22.4312
4435.896  22.39228
4437.146  22.339
4438.395  22.34715
4439.645  22.38143
4440.894  22.40393
4442.144  22.40646
4443.393  22.41938
4444.643  22.41555
4445.892  22.39221
4447.141  22.41921
4448.391  22.44649
4449.640  22.45348
4450.890  22.51202
4452.139  22.53306
4453.389  22.48415
4454.638  22.49385
4455.888  22.53913
4457.137  22.54664
4458.386  22.54678
4459.636  22.55353
4460.885  22.54151
4462.135  22.53138
4463.384  22.5238
4464.634  22.51398
4465.883  22.51405
4467.133  22.54399
4468.382  22.58797
4469.631  22.60309
4470.881  22.61015
4472.130  22.58113
4473.380  22.52119
4474.629  22.49114
4475.879  22.45325
4477.128  22.42831
4478.378  22.47681
4479.627  22.51872
4480.877  22.49461
4482.126  22.47441
4483.375  22.49556
4484.625  22.5086
4485.874  22.49491
4487.124  22.50744
4488.373  22.5241
4489.623  22.50464
4490.872  22.49483
4492.122  22.49815
4493.371  22.48714
4494.620  22.47066
4495.870  22.4621
4497.119  22.45824
4498.369  22.49449
4499.618  22.53119
4500.868  22.49347
4502.117  22.45498
4503.367  22.45219
4504.616  22.46229
4505.866  22.45332
4507.115  22.4283
4508.364  22.43882
4509.614  22.43895
4510.863  22.41545
4512.113  22.44332
4513.362  22.49554
4514.612  22.51251
4515.861  22.50769
4517.111  22.49474
4518.360  22.49826
4519.609  22.48636
4520.859  22.43766
4522.108  22.42291
4523.358  22.41782
4524.607  22.36283
4525.857  22.32118
4527.106  22.31299
4528.356  22.31898
4529.605  22.32374
4530.854  22.31513
4532.104  22.33491
4533.353  22.33096
4534.603  22.28686
4535.852  22.28312
4537.102  22.28162
4538.351  22.26797
4539.601  22.28939
4540.850  22.29863
4542.100  22.29214
4543.349  22.29914
4544.598  22.28089
4545.848  22.29233
4547.097  22.36019
4548.347  22.38555
4549.596  22.36732
4550.846  22.35435
4552.095  22.36983
4553.345  22.39666
4554.594  22.39024
4555.843  22.36541
4557.093  22.37548
4558.342  22.40998
4559.592  22.39813
4560.841  22.37343
4562.091  22.40586
4563.340  22.43965
4564.590  22.41167
4565.839  22.39624
4567.088  22.4305
4568.338  22.45375
4569.587  22.44634
4570.837  22.43945
4572.086  22.45504
4573.336  22.45801
4574.585  22.42862
4575.835  22.37622
4577.084  22.3222
4578.334  22.33113
4579.583  22.36645
4580.832  22.36042
4582.082  22.33997
4583.331  22.32059
4584.581  22.319
4585.830  22.35767
4587.080  22.40392
4588.329  22.38553
4589.579  22.37999
4590.828  22.4048
4592.077  22.3941
4593.327  22.41213
4594.576  22.42426
4595.826  22.42584
4597.075  22.47538
4598.325  22.48756
4599.574  22.43138
4600.824  22.41881
4602.073  22.44245
4603.323  22.4257
4604.572  22.41569
4605.821  22.4224
4607.071  22.42629
4608.320  22.42746
4609.570  22.40131
4610.819  22.42894
4612.069  22.50623
4613.318  22.52776
4614.568  22.51518
4615.817  22.47277
4617.066  22.42587
4618.316  22.42921
4619.565  22.42616
4620.815  22.40843
4622.064  22.42288
4623.314  22.43501
4624.563  22.4153
4625.813  22.39928
4627.062  22.43172
4628.311  22.47288
4629.561  22.45786
4630.810  22.42293
4632.060  22.40549
4633.309  22.42214
4634.559  22.45205
4635.808  22.4542
4637.058  22.45049
4638.307  22.45872
4639.557  22.46415
4640.806  22.47003
4642.055  22.47825
4643.305  22.47693
4644.554  22.47708
4645.804  22.50184
4647.053  22.50691
4648.303  22.4814
4649.552  22.44556
4650.802  22.41008
4652.051  22.4119
4653.300  22.41185
4654.550  22.36737
4655.799  22.34093
4657.049  22.33816
4658.298  22.30068
4659.548  22.26066
4660.797  22.25554
4662.047  22.26769
4663.296  22.29086
4664.545  22.30946
4665.795  22.3172
4667.044  22.30924
4668.294  22.27276
4669.543  22.25052
4670.793  22.25003
4672.042  22.25124
4673.292  22.24428
4674.541  22.2331
4675.791  22.25864
4677.040  22.31114
4678.289  22.32655
4679.539  22.29761
4680.788  22.26162
4682.038  22.26889
4683.287  22.32782
4684.537  22.36135
4685.786  22.33526
4687.036  22.32491
4688.285  22.32886
4689.534  22.3157
4690.784  22.32359
4692.033  22.34069
4693.283  22.33582
4694.532  22.33275
4695.782  22.35739
4697.031  22.38377
4698.281  22.38474
4699.530  22.38046
4700.779  22.39253
4702.029  22.40775
4703.278  22.41264
4704.528  22.39618
4705.777  22.38262
4707.027  22.38946
4708.276  22.36477
4709.526  22.31741
4710.775  22.32864
4712.025  22.3484
4713.274  22.31418
4714.523  22.29309
4715.773  22.30534
4717.022  22.3148
4718.272  22.32523
4719.521  22.33976
4720.771  22.35328
4722.020  22.34746
4723.270  22.33416
4724.519  22.34376
4725.768  22.34833
4727.018  22.3565
4728.267  22.39387
4729.517  22.3804
4730.766  22.34683
4732.016  22.37759
4733.265  22.40374
4734.515  22.37586
4735.764  22.33594
4737.014  22.3184
4738.263  22.33321
4739.512  22.32114
4740.762  22.28238
4742.011  22.27861
4743.261  22.28448
4744.510  22.29874
4745.760  22.3231
4747.009  22.33671
4748.259  22.3467
4749.508  22.33307
4750.757  22.35388
4752.007  22.44395
4753.256  22.45531
4754.506  22.41107
4755.755  22.4081
4757.005  22.4115
4758.254  22.41139
4759.504  22.41237
4760.753  22.42621
4762.002  22.42619
4763.252  22.39606
4764.501  22.38226
4765.751  22.39225
4767.000  22.39335
4768.250  22.40768
4769.499  22.43608
4770.749  22.45192
4771.998  22.44831
4773.248  22.41672
4774.497  22.37968
4775.746  22.37372
4776.996  22.34499
4778.245  22.30958
4779.495  22.32931
4780.744  22.34875
4781.994  22.37338
4783.243  22.41978
4784.493  22.40944
4785.742  22.38655
4786.991  22.36943
4788.241  22.34779
4789.490  22.3706
4790.740  22.38387
4791.989  22.3559
4793.239  22.33755
4794.488  22.33286
4795.738  22.35712
4796.987  22.37722
4798.236  22.36787
4799.486  22.35479
4800.735  22.33534
4801.985  22.32397
4803.234  22.34211
4804.484  22.34985
4805.733  22.32934
4806.983  22.32269
4808.232  22.31703
4809.482  22.30771
4810.731  22.30195
4811.980  22.28802
4813.230  22.27196
4814.479  22.23248
4815.729  22.22221
4816.978  22.23894
4818.228  22.17888
4819.477  22.10829
4820.727  22.08628
4821.976  22.09026
4823.225  22.10108
4824.475  22.09327
4825.724  22.11018
4826.974  22.14659
4828.223  22.15057
4829.473  22.12714
4830.722  22.09176
4831.972  22.08957
4833.221  22.0897
4834.471  22.05136
4835.720  22.03872
4836.969  22.078
4838.219  22.11511
4839.468  22.13524
4840.718  22.14746
4841.967  22.17184
4843.217  22.19058
4844.466  22.17889
4845.716  22.16512
4846.965  22.16109
4848.214  22.16854
4849.464  22.19425
4850.713  22.23685
4851.963  22.25873
4853.212  22.27279
4854.462  22.33367
4855.711  22.36132
4856.961  22.32619
4858.210  22.2878
4859.459  22.29185
4860.709  22.2781
4861.958  22.24549
4863.208  22.26184
4864.457  22.2777
4865.707  22.26403
4866.956  22.27924
4868.206  22.3122
4869.455  22.31177
4870.705  22.32114
4871.954  22.34421
4873.203  22.33474
4874.453  22.31539
4875.702  22.29906
4876.952  22.26442
4878.201  22.2235
4879.451  22.21014
4880.700  22.22406
4881.950  22.23149
4883.199  22.2243
4884.448  22.2194
4885.698  22.24488
4886.947  22.2846
4888.197  22.29024
4889.446  22.23624
4890.696  22.19854
4891.945  22.20896
4893.195  22.23157
4894.444  22.232
4895.693  22.22445
4896.943  22.24814
4898.192  22.30203
4899.442  22.32886
4900.691  22.33861
4901.941  22.32821
4903.190  22.25557
4904.440  22.20544
4905.689  22.23575
4906.939  22.28807
4908.188  22.29562
4909.437  22.28483
4910.687  22.29127
4911.936  22.27267
4913.186  22.22874
4914.435  22.22158
4915.685  22.29445
4916.934  22.34794
4918.184  22.32038
4919.433  22.31242
4920.682  22.34824
4921.932  22.38282
4923.181  22.36995
4924.431  22.31595
4925.680  22.26704
4926.930  22.2643
4928.179  22.30453
4929.429  22.27888
4930.678  22.22983
4931.927  22.24178
4933.177  22.28954
4934.426  22.29204
4935.676  22.26818
4936.925  22.26409
4938.175  22.28603
4939.424  22.29474
4940.674  22.26288
4941.923  22.22975
4943.173  22.24577
4944.422  22.29596
4945.671  22.29477
4946.921  22.27226
4948.170  22.27929
4949.420  22.24344
4950.669  22.19382
4951.919  22.16501
4953.168  22.16832
4954.418  22.19874
4955.667  22.23913
4956.916  22.27435
4958.166  22.29794
4959.415  22.28415
4960.665  22.27944
4961.914  22.27304
4963.164  22.21455
4964.413  22.17147
4965.663  22.14406
4966.912  22.12982
4968.162  22.13417
4969.411  22.12683
4970.660  22.08514
4971.910  22.06065
4973.159  22.07446
4974.409  22.09289
4975.658  22.09103
4976.908  22.0779
4978.157  22.05226
4979.407  22.03857
4980.656  22.03877
4981.905  22.03429
4983.155  22.05515
4984.404  22.08132
4985.654  22.11647
4986.903  22.12033
4988.153  22.1097
4989.402  22.10575
4990.652  22.07103
4991.901  22.07632
4993.150  22.08972
4994.400  22.06974
4995.649  22.13288
4996.899  22.20568
4998.148  22.19633
4999.398  22.2041
5000.647  22.24459
5001.897  22.21583
5003.146  22.16998
5004.396  22.17029
5005.645  22.15628
5006.894  22.17456
5008.144  22.2203
5009.393  22.21571
5010.643  22.22471
5011.892  22.26438
5013.142  22.25026
5014.391  22.21274
5015.641  22.23991
5016.890  22.30246
5018.139  22.29201
5019.389  22.25175
5020.638  22.25912
5021.888  22.28364
5023.137  22.30996
5024.387  22.32178
5025.636  22.32451
5026.886  22.29163
5028.135  22.22713
5029.384  22.20672
5030.634  22.21536
5031.883  22.22796
5033.133  22.27439
5034.382  22.27962
5035.632  22.26819
5036.881  22.29007
5038.131  22.31968
5039.380  22.33188
5040.630  22.31186
5041.879  22.27662
5043.128  22.28269
5044.378  22.27057
5045.627  22.22745
5046.877  22.22979
5048.126  22.29399
5049.376  22.35615
